#   t (Gyr) =  0.100

    M/MsTeff(K)    L/Ls  lg(g)  R(Gcm       D      Li         F33        F33B         F41        F45B         F47         F51         FHa         F57        F63B         F67         F75         F78         F82        F82B         F89       G_RSV           G        G_BP        G_RP

  0.0150  1256.   -4.44   4.39   8.99  0.0000  1.0000      29.929      29.929      27.049      25.359      24.523      25.732      22.235      26.025      22.394      21.549      21.266      20.650      18.700      18.449      16.962      17.547      19.652      24.996      18.196
  0.0200  1404.   -4.27   4.54   8.75  0.0000  1.0000      29.415      29.415      26.483      24.739      24.072      24.519      20.614      24.420      20.910      20.084      19.927      19.565      17.807      17.829      16.552      16.995      19.077      23.766      17.682
  0.0300  1912.   -3.74   4.72   8.68  0.0000  1.0000      28.390      28.390      25.494      23.317      23.149      22.138      18.893      21.148      19.300      18.569      17.700      17.479      16.454      16.559      15.419      16.191      17.754      21.171      16.402
  0.0400  2311.   -3.36   4.80   9.14  0.0000  1.0000      23.739      23.739      23.181      21.111      20.799      20.147      17.535      19.366      17.863      17.135      15.523      15.555      14.279      14.502      13.414      14.341      15.808      19.573      14.451
  0.0500  2525.   -3.15   4.84   9.76  0.0000  0.9990      22.858      22.858      21.171      19.357      18.998      18.514      16.562      18.071      16.829      16.131      14.197      14.371      13.299      13.523      12.633      13.354      14.901      18.343      13.595
  0.0600  2670.   -3.00   4.87  10.38  0.0000  0.9530      21.155      21.155      19.437      17.899      17.584      17.063      15.643      16.897      15.878      15.238      13.305      13.506      12.636      12.828      12.086      12.639      14.220      17.169      12.969
  0.0700  2794.   -2.87   4.88  11.05  0.0000  0.5870      19.881      19.881      18.086      16.791      16.496      15.998      14.728      15.811      14.967      14.391      12.626      12.792      12.096      12.258      11.637      12.054      13.633      16.115      12.439
  0.0720  2813.   -2.84   4.88  11.19  0.0000  0.4470      19.728      19.728      17.930      16.673      16.374      15.901      14.607      15.680      14.850      14.280      12.538      12.695      12.017      12.176      11.568      11.971      13.549      15.989      12.361
  0.0750  2839.   -2.81   4.88  11.39  0.0000  0.2330      19.550      19.550      17.754      16.543      16.235      15.800      14.465      15.528      14.715      14.152      12.432      12.576      11.915      12.074      11.480      11.867      13.444      15.845      12.263
  0.0800  2879.   -2.76   4.89  11.72  0.0000  0.0284      19.274      19.274      17.481      16.341      16.020      15.644      14.242      15.293      14.504      13.950      12.266      12.390      11.755      11.913      11.340      11.703      13.279      15.621      12.107
  0.0900  2942.   -2.68   4.89  12.37  0.0000  0.0000      18.775      18.775      16.976      15.916      15.590      15.262      13.855      14.866      14.124      13.591      11.971      12.073      11.483      11.635      11.097      11.425      12.989      15.202      11.837
  0.1000  2993.   -2.61   4.90  12.96  0.0000  0.0000      18.340      18.340      16.533      15.524      15.200      14.892      13.524      14.492      13.794      13.280      11.716      11.804      11.253      11.398      10.889      11.188      12.739      14.831      11.606
  0.2000  3272.   -2.14   4.89  18.57  0.0000  0.0000      16.079      16.079      14.012      13.196      12.931      12.571      11.510      12.187      11.753      11.380      10.258      10.257       9.920      10.020       9.662       9.832      11.193      12.567      10.225
  0.3000  3409.   -1.87   4.86  23.36  0.0000  0.0000      15.079      15.079      13.056      12.236      11.960      11.618      10.571      11.185      10.804      10.467       9.503       9.478       9.205       9.290       8.978       9.118      10.389      11.586       9.484
  0.4000  3529.   -1.65   4.83  27.99  0.0000  0.0000      14.302      14.302      12.302      11.471      11.182      10.860       9.830      10.390      10.050       9.740       8.900       8.860       8.632       8.707       8.430       8.551       9.737      10.808       8.888
  0.5000  3705.   -1.41   4.77  33.66  0.0000  0.0000      13.409      13.409      11.426      10.563      10.250       9.960       8.958       9.440       9.153       8.881       8.213       8.156       7.988       8.047       7.818       7.916       8.972       9.881       8.205
  0.6000  4100.   -1.09   4.71  39.56  0.0000  0.0000      12.096      12.096      10.200       9.371       9.007       8.867       7.769       8.184       7.940       7.704       7.347       7.271       7.186       7.224       7.067       7.141       7.950       8.645       7.322
  0.7000  4402.   -0.88   4.69  43.77  0.0000  0.0000      11.002      11.002       9.250       8.473       8.111       8.001       7.017       7.379       7.173       6.972       6.771       6.709       6.658       6.683       6.567       6.630       7.262       7.810       6.741
  0.8000  4826.   -0.61   4.64  49.57  0.0000  0.0047       9.460       9.460       7.990       7.362       7.058       6.923       6.198       6.469       6.320       6.168       6.048       6.005       5.979       5.992       5.917       5.966       6.433       6.843       6.029
  0.9000  5209.   -0.37   4.58  56.17  0.0000  0.0823       8.252       8.252       6.998       6.484       6.235       6.069       5.541       5.743       5.634       5.517       5.431       5.401       5.386       5.396       5.350       5.389       5.747       6.069       5.423
  1.0000  5541.   -0.16   4.52  63.34  0.0000  0.3070       7.313       7.313       6.211       5.783       5.571       5.406       4.998       5.154       5.069       4.977       4.913       4.894       4.884       4.893       4.870       4.900       5.178       5.440       4.913
  1.1000  5886.    0.05   4.45  71.57  0.0000  0.5740       6.467       6.467       5.469       5.115       4.932       4.785       4.470       4.585       4.522       4.452       4.409       4.398       4.394       4.402       4.400       4.422       4.624       4.835       4.415
  1.2000  6170.    0.24   4.39  80.89  0.0000  0.7700       5.802       5.802       4.853       4.551       4.389       4.262       4.016       4.098       4.052       3.998       3.971       3.966       3.968       3.974       3.987       4.003       4.146       4.318       3.982
  1.3000  6453.    0.41   4.33  90.06  0.0000  0.8800       5.240       5.240       4.300       4.041       3.897       3.791       3.608       3.659       3.628       3.592       3.579       3.581       3.589       3.592       3.619       3.630       3.715       3.851       3.595
  1.4000  6766.    0.56   4.29  97.70  0.0000  0.9380       4.763       4.763       3.805       3.583       3.452       3.370       3.255       3.270       3.256       3.238       3.242       3.251       3.268       3.267       3.307       3.315       3.334       3.433       3.263

