#   t (Gyr) =  0.008

    M/MsTeff(K)    L/Ls  lg(g)  R(Gcm       D      Li         F33        F33B         F41        F45B         F47         F51         FHa         F57        F63B         F67         F75         F78         F82        F82B         F89       G_RSV           G        G_BP        G_RP

  0.0100  1714.   -3.70   4.02  11.31  1.0000  1.0000      28.877      28.877      25.886      23.716      23.634      22.428      19.115      21.001      19.469      18.774      17.867      17.568      16.866      16.952      15.993      16.527      18.194      21.270      16.900
  0.0150  2280.   -3.05   4.04  13.49  0.8300  1.0000      23.418      23.418      21.877      20.001      19.795      18.969      17.099      18.744      17.354      16.629      14.773      14.834      13.631      13.859      12.779      13.859      15.176      18.948      13.821
  0.0200  2525.   -2.65   3.94  17.42  0.5600  1.0000      19.867      19.867      18.195      17.260      17.115      16.474      15.410      16.712      15.577      14.892      12.803      13.008      12.058      12.256      11.400      12.183      13.638      16.830      12.349
  0.0300  2699.   -2.29   3.87  23.05  0.0590  1.0000      17.905      17.905      16.078      15.438      15.338      14.777      13.791      14.895      13.973      13.359      11.414      11.607      10.850      11.016      10.314      10.885      12.399      15.051      11.173
  0.0400  2784.   -2.22   3.99  23.35  0.0000  1.0000      17.432      17.432      15.570      14.920      14.797      14.266      13.287      14.312      13.483      12.906      11.066      11.238      10.555      10.711      10.074      10.558      12.083      14.504      10.889
  0.0500  2849.   -2.13   4.03  24.80  0.0000  1.0000      17.005      17.005      15.125      14.480      14.345      13.843      12.855      13.837      13.057      12.503      10.734      10.894      10.254      10.404       9.805      10.243      11.764      14.047      10.592
  0.0600  2903.   -2.05   4.06  26.27  0.0000  1.0000      16.630      16.630      14.737      14.092      13.950      13.462      12.495      13.437      12.703      12.169      10.453      10.602       9.994      10.140       9.571       9.975      11.490      13.656      10.336
  0.0700  2948.   -1.97   4.08  27.75  0.0000  1.0000      16.302      16.302      14.396      13.759      13.613      13.142      12.197      13.109      12.406      11.886      10.209      10.350       9.767       9.909       9.363       9.741      11.249      13.330      10.110
  0.0720  2956.   -1.96   4.08  28.14  0.0000  1.0000      16.231      16.231      14.322      13.689      13.542      13.074      12.134      13.040      12.343      11.826      10.155      10.295       9.716       9.858       9.316       9.690      11.196      13.261      10.060
  0.0750  2968.   -1.93   4.08  28.80  0.0000  1.0000      16.119      16.119      14.206      13.579      13.433      12.970      12.037      12.935      12.246      11.732      10.072      10.209       9.637       9.777       9.242       9.609      11.114      13.155       9.981
  0.0800  2986.   -1.89   4.08  29.72  0.0000  1.0000      15.958      15.958      14.039      13.421      13.273      12.818      11.896      12.780      12.105      11.597       9.951      10.086       9.524       9.663       9.136       9.494      10.995      13.001       9.868
  0.0900  3017.   -1.83   4.09  31.24  0.0000  1.0000      15.715      15.715      13.762      13.157      13.009      12.566      11.649      12.507      11.858      11.363       9.760       9.883       9.343       9.479       8.970       9.308      10.800      12.736       9.687
  0.1000  3045.   -1.80   4.12  31.79  0.0000  1.0000      15.575      15.575      13.574      12.975      12.824      12.391      11.466      12.297      11.676      11.196       9.647       9.756       9.240       9.372       8.882       9.196      10.679      12.540       9.581
  0.2000  3234.   -1.40   4.12  44.67  0.0000  1.0000      14.155      14.155      12.068      11.467      11.286      10.905       9.988      10.691      10.194       9.781       8.479       8.532       8.130       8.241       7.840       8.065       9.469      10.988       8.453
  0.3000  3364.   -1.17   4.14  53.67  0.0000  0.9960      13.379      13.379      11.298      10.637      10.421      10.065       9.147       9.780       9.346       8.972       7.827       7.851       7.513       7.611       7.260       7.443       8.776      10.114       7.818
  0.4000  3518.   -0.99   4.16  60.60  0.0000  0.9260      12.722      12.722      10.643       9.903       9.644       9.320       8.400       8.949       8.584       8.255       7.295       7.285       7.018       7.101       6.803       6.946       8.181       9.328       7.295
  0.5000  3669.   -0.84   4.18  66.24  0.0000  0.4490      12.164      12.164      10.088       9.274       8.975       8.685       7.769       8.240       7.936       7.648       6.860       6.821       6.619       6.686       6.435       6.549       7.671       8.657       6.861
  0.6000  3798.   -0.72   4.20  70.82  0.0000  0.0871      11.713      11.713       9.644       8.780       8.455       8.192       7.283       7.696       7.434       7.178       6.524       6.469       6.312       6.368       6.150       6.248       7.269       8.137       6.524
  0.7000  3923.   -0.61   4.22  75.13  0.0000  0.1040      11.279      11.279       9.230       8.330       7.986       7.743       6.837       7.210       6.977       6.745       6.223       6.158       6.039       6.084       5.896       5.981       6.898       7.664       6.216
  0.8000  4049.   -0.51   4.23  79.45  0.0000  0.1730      10.814      10.814       8.813       7.941       7.580       7.397       6.422       6.792       6.565       6.341       5.932       5.861       5.768       5.807       5.641       5.718       6.550       7.252       5.915
  0.9000  4184.   -0.41   4.23  83.59  0.0000  0.2820      10.302      10.302       8.377       7.552       7.184       7.054       6.013       6.393       6.166       5.946       5.647       5.575       5.505       5.536       5.391       5.462       6.209       6.848       5.620
  1.0000  4327.   -0.30   4.23  88.11  0.0000  0.4480       9.721       9.721       7.892       7.105       6.745       6.619       5.627       5.991       5.780       5.575       5.356       5.290       5.237       5.261       5.136       5.200       5.860       6.429       5.325
  1.1000  4481.   -0.20   4.23  92.68  0.0000  0.6300       9.099       9.099       7.387       6.656       6.315       6.183       5.274       5.612       5.421       5.233       5.064       5.006       4.964       4.984       4.875       4.934       5.522       6.029       5.034
  1.2000  4647.   -0.09   4.22  98.10  0.0000  0.7850       8.460       8.460       6.865       6.195       5.879       5.735       4.931       5.231       5.064       4.896       4.755       4.706       4.673       4.688       4.596       4.649       5.173       5.626       4.731
  1.3000  4837.    0.04   4.20 104.42  0.0000  0.8820       7.796       7.796       6.321       5.714       5.428       5.264       4.575       4.837       4.692       4.545       4.426       4.384       4.360       4.371       4.295       4.342       4.805       5.207       4.408
  1.4000  5064.    0.18   4.17 112.40  0.0000  0.9380       7.065       7.065       5.723       5.185       4.931       4.750       4.177       4.399       4.278       4.151       4.053       4.019       4.002       4.011       3.953       3.994       4.391       4.740       4.041
