#   t (Gyr) =  0.200

    M/MsTeff(K)    L/Ls  lg(g)  R(Gcm       D      Li         F33        F33B         F41        F45B         F47         F51         FHa         F57        F63B         F67         F75         F78         F82        F82B         F89       G_RSV           G        G_BP        G_RP

  0.0300  1480.   -4.25   4.79   8.00  0.0000  1.0000      29.254      29.254      26.312      24.431      23.973      23.772      20.098      23.599      20.465      19.655      19.274      19.060      17.657      17.753      16.650      17.002      19.009      23.019      17.668
  0.0400  1940.   -3.78   4.92   7.98  0.0000  1.0000      28.436      28.436      25.540      23.410      23.201      22.283      18.944      21.392      19.373      18.625      17.796      17.606      16.541      16.648      15.515      16.239      17.845      21.304      16.494
  0.0500  2268.   -3.48   4.99   8.24  0.0000  0.9860      25.544      25.544      24.223      21.977      21.757      20.878      18.026      19.940      18.393      17.665      16.209      16.139      14.853      15.068      13.951      14.840      16.351      20.145      14.985
  0.0600  2488.   -3.28   5.03   8.65  0.0000  0.4660      23.939      23.939      22.142      20.104      19.712      19.250      16.954      18.582      17.268      16.561      14.719      14.850      13.696      13.935      13.001      13.734      15.301      18.862      13.981
  0.0700  2639.   -3.14   5.05   9.08  0.0000  0.0000      22.147      22.147      20.436      18.707      18.338      17.884      16.137      17.512      16.403      15.739      13.810      13.998      13.047      13.257      12.469      13.048      14.650      17.806      13.379
  0.0720  2664.   -3.11   5.06   9.17  0.0000  0.0000      21.859      21.859      20.134      18.421      18.071      17.572      15.977      17.297      16.233      15.581      13.660      13.856      12.942      13.144      12.380      12.935      14.536      17.585      13.276
  0.0750  2698.   -3.08   5.06   9.28  0.0000  0.0000      21.471      21.471      19.727      18.036      17.713      17.154      15.759      17.007      16.001      15.366      13.456      13.665      12.800      12.990      12.259      12.781      14.382      17.287      13.136
  0.0800  2756.   -3.02   5.07   9.52  0.0000  0.0000      20.828      20.828      19.053      17.505      17.185      16.655      15.318      16.476      15.571      14.972      13.146      13.323      12.546      12.725      12.058      12.509      14.109      16.775      12.892
  0.0900  2853.   -2.91   5.07  10.05  0.0000  0.0000      19.982      19.982      18.194      16.881      16.536      16.140      14.690      15.781      14.966      14.402      12.692      12.820      12.148      12.315      11.724      12.093      13.689      16.116      12.505
  0.1000  2926.   -2.83   5.07  10.57  0.0000  0.0000      19.445      19.445      17.664      16.487      16.121      15.832      14.270      15.339      14.558      14.010      12.374      12.474      11.857      12.017      11.465      11.794      13.382      15.693      12.217
  0.2000  3264.   -2.28   5.03  15.82  0.0000  0.0000      16.507      16.507      14.432      13.578      13.301      12.943      11.856      12.540      12.107      11.734      10.618      10.614      10.277      10.377      10.019      10.185      11.550      12.928      10.582
  0.3000  3414.   -1.98   4.97  20.65  0.0000  0.0000      15.343      15.343      13.327      12.486      12.202      11.863      10.798      11.411      11.037      10.702       9.759       9.728       9.461       9.545       9.237       9.373      10.636      11.820       9.737
  0.4000  3537.   -1.73   4.91  25.60  0.0000  0.0000      14.472      14.472      12.481      11.637      11.343      11.023       9.983      10.541      10.206       9.899       9.076       9.033       8.811       8.884       8.611       8.729       9.906      10.964       9.063
  0.5000  3701.   -1.46   4.82  31.77  0.0000  0.0000      13.535      13.535      11.558      10.693      10.379      10.088       9.080       9.565       9.278       9.005       8.339       8.282       8.114       8.173       7.944       8.042       9.098      10.007       8.330
  0.6000  3981.   -1.17   4.73  38.39  0.0000  0.0000      12.462      12.462      10.515       9.617       9.275       9.029       8.074       8.469       8.236       8.007       7.559       7.492       7.388       7.429       7.254       7.333       8.199       8.924       7.546
  0.7000  4390.   -0.88   4.68  44.18  0.0000  0.0000      11.019      11.019       9.260       8.479       8.116       8.006       7.016       7.380       7.172       6.970       6.765       6.703       6.651       6.676       6.559       6.622       7.259       7.813       6.736
  0.8000  4824.   -0.61   4.63  49.89  0.0000  0.0043       9.453       9.453       7.981       7.353       7.048       6.914       6.188       6.458       6.309       6.157       6.036       5.994       5.968       5.981       5.905       5.954       6.423       6.833       6.017
  0.9000  5207.   -0.37   4.57  56.42  0.0000  0.0817       8.247       8.247       6.992       6.478       6.228       6.063       5.533       5.736       5.626       5.509       5.423       5.393       5.378       5.388       5.342       5.381       5.740       6.062       5.415
  1.0000  5567.   -0.15   4.52  63.64  0.0000  0.3070       7.254       7.254       6.162       5.741       5.531       5.366       4.966       5.119       5.036       4.945       4.884       4.865       4.855       4.864       4.843       4.873       5.144       5.403       4.884
  1.1000  5895.    0.06   4.45  71.81  0.0000  0.5740       6.446       6.446       5.450       5.098       4.916       4.769       4.456       4.571       4.508       4.438       4.396       4.385       4.381       4.389       4.387       4.409       4.610       4.819       4.402
  1.2000  6177.    0.24   4.38  81.24  0.0000  0.7700       5.784       5.784       4.835       4.534       4.373       4.247       4.002       4.084       4.037       3.984       3.957       3.953       3.955       3.960       3.974       3.990       4.132       4.303       3.969
  1.3000  6456.    0.42   4.32  90.59  0.0000  0.8800       5.224       5.224       4.283       4.025       3.881       3.776       3.593       3.644       3.613       3.577       3.565       3.566       3.575       3.578       3.604       3.616       3.700       3.835       3.580
  1.4000  6766.    0.57   4.28  98.57  0.0000  0.9380       4.745       4.745       3.785       3.563       3.432       3.350       3.236       3.250       3.237       3.218       3.223       3.232       3.249       3.248       3.288       3.296       3.315       3.413       3.244