#   t (Gyr) =  0.060

    M/MsTeff(K)    L/Ls  lg(g)  R(Gcm       D      Li         F33        F33B         F41        F45B         F47         F51         FHa         F57        F63B         F67         F75         F78         F82        F82B         F89       G_RSV           G        G_BP        G_RP

  0.0150  1527.   -4.02   4.32   9.79  0.0004  1.0000      29.075      29.075      26.096      24.005      23.869      22.821      19.331      22.014      19.740      18.976      18.250      18.083      17.205      17.326      16.424      16.739      18.593      21.830      17.315
  0.0200  1619.   -3.97   4.49   9.29  0.0000  1.0000      28.894      28.894      25.917      23.826      23.684      22.641      19.222      21.816      19.637      18.879      18.144      17.978      17.119      17.239      16.333      16.677      18.498      21.671      17.221
  0.0300  2187.   -3.42   4.64   9.59  0.0000  1.0000      27.338      27.338      24.871      22.576      22.359      21.435      18.219      20.181      18.536      17.794      16.363      16.248      14.983      15.155      13.958      14.981      16.408      20.397      15.023
  0.0400  2474.   -3.13   4.69  10.41  0.0000  1.0000      22.981      22.981      21.299      19.452      19.128      18.554      16.667      18.199      16.920      16.216      14.286      14.460      13.356      13.576      12.642      13.438      14.941      18.445      13.625
  0.0500  2645.   -2.94   4.71  11.31  0.0000  1.0000      20.957      20.957      19.264      17.873      17.557      17.092      15.570      16.867      15.785      15.129      13.181      13.397      12.521      12.706      11.942      12.534      14.096      17.133      12.838
  0.0600  2771.   -2.80   4.74  12.10  0.0000  0.9970      19.713      19.713      17.925      16.729      16.449      15.970      14.665      15.779      14.888      14.295      12.500      12.681      11.969      12.129      11.487      11.937      13.506      16.068      12.303
  0.0700  2864.   -2.69   4.74  12.95  0.0000  0.9750      18.986      18.986      17.177      16.107      15.818      15.404      14.087      15.127      14.330      13.774      12.078      12.218      11.582      11.735      11.154      11.535      13.099      15.437      11.926
  0.0720  2879.   -2.67   4.74  13.12  0.0000  0.9640      18.868      18.868      17.057      16.002      15.712      15.304      13.998      15.024      14.245      13.695      12.011      12.143      11.516      11.669      11.097      11.469      13.031      15.335      11.863
  0.0750  2900.   -2.64   4.75  13.35  0.0000  0.9380      18.708      18.708      16.895      15.860      15.569      15.171      13.876      14.883      14.128      13.588      11.920      12.041      11.428      11.581      11.021      11.379      12.940      15.196      11.778
  0.0800  2930.   -2.59   4.75  13.78  0.0000  0.8690      18.449      18.449      16.629      15.623      15.334      14.947      13.674      14.656      13.927      13.398      11.762      11.875      11.284      11.433      10.891      11.232      12.784      14.971      11.634
  0.0900  2984.   -2.51   4.75  14.61  0.0000  0.5750      17.986      17.986      16.155      15.201      14.916      14.548      13.313      14.252      13.567      13.058      11.480      11.578      11.025      11.169      10.656      10.967      12.505      14.568      11.376
  0.1000  3028.   -2.44   4.75  15.34  0.0000  0.1450      17.616      17.616      15.698      14.805      14.534      14.165      12.986      13.869      13.237      12.753      11.250      11.331      10.818      10.954      10.470      10.752      12.266      14.191      11.164
  0.2000  3279.   -1.99   4.74  21.97  0.0000  0.0000      15.640      15.640      13.578      12.800      12.548      12.185      11.150      11.823      11.386      11.011       9.882       9.886       9.547       9.647       9.288       9.462      10.820      12.193       9.852
  0.3000  3406.   -1.74   4.73  27.22  0.0000  0.0000      14.733      14.733      12.704      11.911      11.643      11.300      10.275      10.887      10.502      10.161       9.178       9.159       8.879       8.966       8.650       8.795      10.071      11.280       9.161
  0.4000  3515.   -1.55   4.72  31.78  0.0000  0.0000      14.068      14.068      12.058      11.246      10.964      10.638       9.623      10.186       9.839       9.524       8.655       8.621       8.383       8.460       8.177       8.303       9.505      10.597       8.644
  0.5000  3633.   -1.37   4.69  36.75  0.0000  0.0000      13.420      13.420      11.421      10.581      10.281       9.978       8.979       9.487       9.179       8.890       8.142       8.094       7.899       7.965       7.716       7.824       8.939       9.916       8.135
  0.6000  3886.   -1.13   4.65  42.40  0.0000  0.0000      12.498      12.498      10.523       9.634       9.301       9.041       8.077       8.493       8.245       8.003       7.476       7.411       7.286       7.333       7.140       7.225       8.160       8.946       7.466
  0.7000  4452.   -0.78   4.60  48.04  0.0000  0.0000      10.640      10.640       8.920       8.163       7.808       7.695       6.744       7.095       6.896       6.701       6.517       6.458       6.411       6.434       6.323       6.384       6.991       7.518       6.488
  0.8000  4900.   -0.57   4.62  50.45  0.0000  0.0049       9.228       9.228       7.800       7.197       6.904       6.762       6.080       6.335       6.195       6.051       5.939       5.899       5.876       5.888       5.819       5.865       6.310       6.700       5.922
  0.9000  5214.   -0.38   4.58  55.84  0.0000  0.0826       8.255       8.255       7.003       6.490       6.241       6.076       5.549       5.751       5.642       5.525       5.439       5.410       5.395       5.405       5.359       5.398       5.755       6.076       5.432
  1.0000  5532.   -0.17   4.52  63.04  0.0000  0.3070       7.339       7.339       6.234       5.804       5.591       5.425       5.015       5.172       5.087       4.994       4.930       4.910       4.900       4.909       4.885       4.916       5.196       5.460       4.930
  1.1000  5848.    0.03   4.46  71.21  0.0000  0.5740       6.537       6.537       5.530       5.169       4.983       4.833       4.509       4.629       4.563       4.491       4.446       4.434       4.429       4.437       4.432       4.456       4.666       4.882       4.451
  1.2000  6152.    0.23   4.39  80.76  0.0000  0.7700       5.828       5.828       4.876       4.572       4.409       4.281       4.030       4.115       4.067       4.013       3.985       3.980       3.981       3.987       3.999       4.015       4.162       4.337       3.995
  1.3000  6440.    0.41   4.33  89.96  0.0000  0.8800       5.256       5.256       4.316       4.055       3.911       3.804       3.618       3.671       3.639       3.601       3.589       3.590       3.598       3.601       3.627       3.638       3.726       3.863       3.604
  1.4000  6763.    0.56   4.29  97.49  0.0000  0.9380       4.770       4.770       3.813       3.590       3.460       3.377       3.261       3.277       3.263       3.244       3.249       3.257       3.274       3.273       3.313       3.321       3.341       3.440       3.269

